# wavelength(Angstorms), SED (Lsun/Angstorms)
91.00,0.00
94.00,0.00
96.00,0.00
98.00,0.00
100.00,0.01
102.00,0.00
104.00,0.01
106.00,0.01
108.00,0.01
110.00,0.02
114.00,0.01
118.00,0.01
121.00,0.03
125.00,0.03
127.00,0.03
128.00,0.03
131.00,0.03
132.00,0.03
134.00,0.03
137.00,0.03
140.00,0.04
143.00,0.05
147.00,0.05
151.00,0.05
155.00,0.05
159.00,0.06
162.00,0.07
166.00,0.07
170.00,0.08
173.00,0.05
177.00,0.07
180.00,0.08
182.00,0.09
186.00,0.08
191.00,0.09
194.00,0.10
198.00,0.11
202.00,0.11
205.00,0.12
210.00,0.13
216.00,0.14
220.00,0.12
223.00,0.14
227.00,0.15
230.00,0.21
234.00,0.63
240.00,1.23
246.00,1.19
252.00,1.65
257.00,1.12
260.00,1.52
264.00,1.88
269.00,1.77
274.00,1.87
279.00,1.70
284.00,1.86
290.00,1.87
296.00,1.69
301.00,1.62
308.00,1.38
318.00,1.99
328.00,2.07
338.00,1.84
348.00,1.82
357.00,1.95
366.00,2.05
375.00,2.00
385.00,1.81
395.00,2.02
405.00,2.06
414.00,2.06
422.00,1.96
430.00,2.02
441.00,1.97
451.00,2.01
460.00,2.03
470.00,2.03
480.00,2.02
490.00,1.93
500.00,2.04
506.00,2.10
512.00,2.04
520.00,2.13
530.00,2.08
540.00,1.97
550.00,2.00
560.00,2.11
570.00,2.09
580.00,2.09
590.00,2.09
600.00,1.97
610.00,2.15
620.00,2.10
630.00,2.17
640.00,2.04
650.00,2.08
658.00,2.07
665.00,2.06
675.00,2.08
685.00,2.04
695.00,2.07
705.00,2.04
716.00,2.08
726.00,2.08
735.00,2.08
745.00,2.08
755.00,2.07
765.00,1.70
775.00,2.05
785.00,1.88
795.00,2.10
805.00,2.10
815.00,2.10
825.00,2.10
835.00,1.85
845.00,2.12
855.00,2.13
865.00,2.18
875.00,2.14
885.00,2.15
895.00,2.16
905.00,2.17
915.00,3.48
925.00,6.35
935.00,10.56
945.00,13.88
955.00,15.16
965.00,16.71
975.00,9.42
985.00,16.47
995.00,15.59
1005.00,17.03
1015.00,16.96
1025.00,11.74
1035.00,16.35
1045.00,18.71
1055.00,18.36
1065.00,17.28
1075.00,17.96
1085.00,15.52
1095.00,18.56
1105.00,18.20
1115.00,18.33
1125.00,17.05
1135.00,18.47
1145.00,17.90
1155.00,18.08
1165.00,18.31
1175.00,15.39
1185.00,18.17
1195.00,17.73
1205.00,16.46
1215.00,12.15
1225.00,17.57
1235.00,17.94
1245.00,18.47
1255.00,18.22
1265.00,18.22
1275.00,18.45
1285.00,18.29
1295.00,17.39
1305.00,17.84
1315.00,18.26
1325.00,18.00
1335.00,17.73
1345.00,17.91
1355.00,18.13
1365.00,17.82
1375.00,17.76
1385.00,17.77
1395.00,16.32
1405.00,16.58
1415.00,17.58
1425.00,17.39
1435.00,17.62
1442.00,17.74
1447.00,17.63
1455.00,17.58
1465.00,17.30
1475.00,17.44
1485.00,17.46
1495.00,17.46
1505.00,17.25
1512.00,16.88
1517.00,17.02
1525.00,17.19
1535.00,16.76
1545.00,16.62
1555.00,17.27
1565.00,17.94
1575.00,20.02
1585.00,22.02
1595.00,23.23
1605.00,22.10
1615.00,24.29
1625.00,24.71
1635.00,25.68
1645.00,30.95
1655.00,26.10
1665.00,36.47
1672.00,31.23
1677.00,44.66
1685.00,47.97
1695.00,46.37
1705.00,50.77
1715.00,57.99
1725.00,60.89
1735.00,68.21
1745.00,69.02
1755.00,76.91
1765.00,66.24
1775.00,76.23
1785.00,81.86
1795.00,92.50
1805.00,104.97
1815.00,109.08
1825.00,103.21
1835.00,109.24
1845.00,93.39
1855.00,105.53
1865.00,118.90
1875.00,119.18
1885.00,122.92
1895.00,131.89
1905.00,128.84
1915.00,140.57
1925.00,144.11
1935.00,126.01
1945.00,157.21
1955.00,161.61
1967.00,178.18
1976.00,175.05
1984.00,175.82
1995.00,177.41
2005.00,169.41
2015.00,180.20
2025.00,162.37
2035.00,192.60
2045.00,210.03
2055.00,210.75
2065.00,208.59
2074.00,236.26
2078.00,243.93
2085.00,244.46
2095.00,238.92
2105.00,232.87
2115.00,249.72
2125.00,248.27
2135.00,230.28
2145.00,262.99
2155.00,262.11
2165.00,247.94
2175.00,252.17
2185.00,276.44
2195.00,304.89
2205.00,296.60
2215.00,274.88
2225.00,293.33
2235.00,340.32
2245.00,320.08
2255.00,297.28
2265.00,288.95
2275.00,315.31
2285.00,342.51
2295.00,318.09
2305.00,350.91
2315.00,353.84
2325.00,316.35
2335.00,323.86
2345.00,272.88
2355.00,370.91
2365.00,299.27
2375.00,349.09
2385.00,264.85
2395.00,312.79
2405.00,311.18
2415.00,325.97
2425.00,415.80
2435.00,408.65
2445.00,445.37
2455.00,449.07
2465.00,454.74
2475.00,420.07
2485.00,381.03
2495.00,392.63
2505.00,489.76
2513.00,389.41
2518.00,333.18
2525.00,332.98
2535.00,382.39
2545.00,400.68
2555.00,478.89
2565.00,463.04
2575.00,523.30
2585.00,519.40
2595.00,507.41
2605.00,479.01
2615.00,449.73
2625.00,539.54
2635.00,610.61
2645.00,738.61
2655.00,800.71
2665.00,709.84
2675.00,768.66
2685.00,809.96
2695.00,716.73
2705.00,766.90
2715.00,679.94
2725.00,680.66
2735.00,748.35
2745.00,581.63
2755.00,664.44
2765.00,765.25
2775.00,818.80
2785.00,714.80
2795.00,355.35
2805.00,440.87
2815.00,867.94
2825.00,945.37
2835.00,929.44
2845.00,863.76
2855.00,685.31
2865.00,948.36
2875.00,994.87
2885.00,999.38
2895.00,1031.01
2910.00,1171.82
2930.00,1150.53
2950.00,1144.68
2970.00,1181.69
2990.00,1221.12
3010.00,1259.40
3030.00,1300.08
3050.00,1363.57
3070.00,1376.35
3090.00,1392.19
3110.00,1440.87
3130.00,1448.39
3150.00,1466.50
3170.00,1547.58
3190.00,1492.05
3210.00,1597.87
3230.00,1550.82
3250.00,1743.45
3270.00,1896.45
3290.00,1921.16
3310.00,1941.35
3330.00,1949.49
3350.00,1953.71
3370.00,1796.83
3390.00,1948.13
3410.00,2004.67
3430.00,2135.96
3450.00,2160.51
3470.00,2223.72
3490.00,2318.88
3510.00,2420.68
3530.00,2382.63
3550.00,2588.55
3570.00,2392.40
3590.00,2382.14
3610.00,2546.41
3630.00,2618.86
3640.00,2665.85
3650.00,2791.81
3670.00,2807.77
3690.00,2775.32
3710.00,3044.27
3730.00,2835.78
3750.00,3170.06
3770.00,3454.91
3790.00,3685.88
3810.00,3921.13
3830.00,3320.78
3850.00,4017.57
3870.00,4072.29
3890.00,3718.39
3910.00,4377.28
3930.00,3429.63
3950.00,4469.24
3970.00,3435.66
3990.00,4991.53
4010.00,5271.68
4030.00,5317.78
4050.00,5358.96
4070.00,5326.02
4090.00,5490.09
4110.00,5149.06
4130.00,5715.84
4150.00,5801.37
4170.00,5937.37
4190.00,5884.00
4210.00,5945.48
4230.00,5914.94
4250.00,5999.70
4270.00,5967.88
4290.00,5809.22
4310.00,5366.02
4330.00,6123.76
4350.00,5853.78
4370.00,6562.02
4390.00,6509.52
4410.00,6770.31
4430.00,7118.09
4450.00,7153.13
4470.00,7381.68
4490.00,7557.42
4510.00,7834.02
4530.00,7634.41
4550.00,7777.31
4570.00,8063.98
4590.00,8008.95
4610.00,8164.40
4630.00,8212.26
4650.00,8280.09
4670.00,8438.74
4690.00,8481.72
4710.00,8469.69
4730.00,8628.09
4750.00,8750.74
4770.00,8802.36
4790.00,8844.71
4810.00,8930.45
4830.00,8939.47
4850.00,8675.53
4870.00,8025.68
4890.00,9007.48
4910.00,9153.60
4930.00,9098.72
4950.00,9288.21
4970.00,9455.01
4990.00,9252.70
5010.00,9144.93
5030.00,9455.08
5050.00,9442.58
5070.00,9635.53
5090.00,9566.65
5110.00,9637.96
5130.00,9616.11
5150.00,9528.18
5170.00,9390.00
5190.00,9573.62
5210.00,9683.40
5230.00,9912.62
5250.00,10133.19
5270.00,9821.89
5290.00,10266.12
5310.00,10445.44
5330.00,10213.31
5350.00,10515.03
5370.00,10515.33
5390.00,10539.74
5410.00,10530.86
5430.00,10631.90
5450.00,10759.07
5470.00,10821.59
5490.00,10902.99
5510.00,10919.93
5530.00,11049.83
5550.00,11187.52
5570.00,11125.29
5590.00,11150.35
5610.00,11247.79
5630.00,11372.92
5650.00,11449.60
5670.00,11451.86
5690.00,11618.70
5710.00,11564.61
5730.00,11815.29
5750.00,11818.95
5770.00,11907.27
5790.00,11910.47
5810.00,12045.97
5830.00,12158.06
5850.00,12111.83
5870.00,12165.42
5890.00,11884.46
5910.00,12219.46
5930.00,12302.46
5950.00,12393.70
5970.00,12479.80
5990.00,12525.96
6010.00,12526.29
6030.00,12634.29
6050.00,12800.57
6070.00,12842.90
6090.00,12875.41
6110.00,12917.59
6130.00,12787.48
6150.00,12965.81
6170.00,12878.97
6190.00,13022.56
6210.00,13051.32
6230.00,12999.78
6250.00,12935.78
6270.00,13196.07
6290.00,13288.17
6310.00,13296.02
6330.00,13443.51
6350.00,13548.76
6370.00,13600.32
6390.00,13681.52
6410.00,13656.64
6430.00,13742.22
6450.00,13814.75
6470.00,13851.07
6490.00,13754.39
6510.00,13956.55
6530.00,14046.45
6550.00,13726.02
6570.00,12534.79
6590.00,14073.27
6610.00,14277.22
6630.00,14351.78
6650.00,14360.86
6670.00,14337.62
6690.00,14494.15
6710.00,14454.53
6730.00,14559.02
6750.00,14575.99
6770.00,14660.08
6790.00,14713.34
6810.00,14749.49
6830.00,14826.75
6850.00,14828.50
6870.00,14927.20
6890.00,15044.76
6910.00,15063.27
6930.00,15073.15
6950.00,15056.94
6970.00,15145.37
6990.00,15194.41
7010.00,15193.01
7030.00,15314.96
7050.00,15376.88
7070.00,15298.17
7090.00,15245.44
7110.00,15221.71
7130.00,15174.95
7150.00,15207.51
7170.00,15336.67
7190.00,15300.76
7210.00,15421.52
7230.00,15572.26
7250.00,15632.28
7270.00,15687.29
7290.00,15670.56
7310.00,15770.26
7330.00,15822.58
7350.00,15901.95
7370.00,16011.43
7390.00,16005.71
7410.00,15924.48
7430.00,16063.98
7450.00,16099.51
7470.00,16161.24
7490.00,16202.00
7510.00,16258.52
7530.00,16332.84
7550.00,16417.84
7570.00,16456.70
7590.00,16478.35
7610.00,16488.14
7630.00,16459.02
7650.00,16458.30
7670.00,16308.83
7690.00,16474.02
7710.00,16408.41
7730.00,16526.39
7750.00,16542.78
7770.00,16678.78
7790.00,16725.99
7810.00,16815.72
7830.00,16786.37
7850.00,16763.97
7870.00,16774.25
7890.00,16704.62
7910.00,16614.77
7930.00,16581.83
7950.00,16619.75
7970.00,16809.92
7990.00,16882.04
8010.00,16894.72
8030.00,16965.69
8050.00,16911.70
8070.00,16947.45
8090.00,16888.49
8110.00,16953.06
8130.00,17013.27
8150.00,17039.90
8170.00,17075.03
8190.00,16968.06
8210.00,17103.44
8230.00,17139.28
8250.00,17235.62
8270.00,17301.96
8290.00,17284.47
8310.00,17215.91
8330.00,17130.29
8350.00,17294.82
8370.00,17302.44
8390.00,17142.74
8410.00,17375.23
8430.00,17304.54
8450.00,17412.51
8470.00,17292.25
8490.00,17351.00
8510.00,16860.57
8530.00,17351.92
8550.00,16100.24
8570.00,17619.66
8590.00,17566.23
8610.00,17551.83
8630.00,17774.14
8650.00,17714.66
8670.00,16437.81
8690.00,17603.69
8710.00,17869.51
8730.00,17922.37
8750.00,17599.50
8770.00,17928.60
8790.00,17967.63
8810.00,17872.36
8830.00,17928.16
8850.00,17972.13
8870.00,17677.75
8890.00,18099.22
8910.00,18173.49
8930.00,18162.59
8950.00,18153.72
8970.00,18201.33
8990.00,18222.71
9010.00,17739.50
9030.00,18166.44
9050.00,18380.26
9070.00,18363.54
9090.00,18175.11
9110.00,18286.05
9130.00,18283.71
9150.00,18222.93
9170.00,18150.70
9190.00,18126.39
9210.00,18018.30
9230.00,17730.11
9250.00,18089.16
9270.00,18217.73
9290.00,18242.20
9310.00,18310.59
9330.00,18333.07
9350.00,18273.16
9370.00,18170.78
9390.00,18229.81
9410.00,18130.64
9430.00,18299.27
9450.00,18265.24
9470.00,18345.16
9490.00,18432.28
9510.00,18461.67
9530.00,18437.62
9550.00,18030.64
9570.00,18420.05
9590.00,18496.47
9610.00,18451.82
9630.00,18464.96
9650.00,18420.65
9670.00,18385.10
9690.00,18472.57
9710.00,18460.17
9730.00,18476.87
9750.00,18482.64
9770.00,18578.75
9790.00,18574.69
9810.00,18705.92
9830.00,18745.54
9850.00,18748.63
9870.00,18733.22
9890.00,18743.62
9910.00,18745.13
9930.00,18777.36
9950.00,18810.89
9970.00,18848.07
9990.00,18872.00
10025.00,18833.16
10075.00,18738.66
10125.00,18984.34
10175.00,18971.20
10225.00,19040.29
10275.00,19122.61
10325.00,19086.61
10375.00,19158.41
10425.00,19196.38
10475.00,19175.70
10525.00,19249.78
10575.00,19271.64
10625.00,19289.58
10675.00,19213.73
10725.00,19314.81
10775.00,19302.35
10825.00,19256.77
10875.00,19187.34
10925.00,18853.55
10975.00,18895.23
11025.00,18936.23
11075.00,19033.31
11125.00,19093.12
11175.00,19148.61
11225.00,19252.51
11275.00,19199.33
11325.00,19243.63
11375.00,19237.72
11425.00,19227.83
11475.00,19408.90
11525.00,19382.01
11575.00,19400.73
11625.00,19284.32
11675.00,19426.72
11725.00,19540.39
11775.00,19436.36
11825.00,19449.52
11875.00,19470.48
11925.00,19606.86
11975.00,19360.76
12025.00,19525.79
12075.00,19507.83
12125.00,19615.73
12175.00,19681.12
12225.00,19715.38
12275.00,19697.75
12325.00,19763.94
12375.00,19755.16
12425.00,19751.54
12475.00,19796.35
12525.00,19816.01
12575.00,19897.25
12625.00,19929.94
12675.00,19899.07
12725.00,19977.26
12775.00,20014.09
12825.00,19665.14
12875.00,19987.50
12925.00,20025.19
12975.00,20097.40
13025.00,20117.37
13075.00,20149.60
13125.00,20081.05
13175.00,20099.92
13225.00,20171.04
13275.00,20091.98
13325.00,19989.88
13375.00,19803.35
13425.00,19853.89
13475.00,19848.68
13525.00,19854.46
13575.00,19830.74
13625.00,19861.90
13675.00,19920.66
13725.00,19942.01
13775.00,19960.50
13825.00,20000.46
13875.00,19992.41
13925.00,20022.66
13975.00,19972.42
14025.00,19880.90
14075.00,19776.31
14125.00,19647.55
14175.00,19719.32
14225.00,19736.83
14275.00,19751.47
14325.00,19840.77
14375.00,19887.86
14425.00,19815.41
14475.00,19962.91
14525.00,19903.51
14570.00,19786.55
14620.00,19707.33
14675.00,19968.62
14725.00,20065.97
14775.00,20035.37
14825.00,20181.10
14875.00,20111.50
14925.00,20333.39
14975.00,20355.10
15025.00,20093.11
15075.00,20244.71
15125.00,20400.65
15175.00,20456.22
15225.00,20555.74
15275.00,20470.72
15325.00,20703.47
15375.00,20776.15
15425.00,20617.55
15475.00,20966.39
15525.00,20965.07
15575.00,20579.04
15625.00,20957.96
15675.00,20993.17
15725.00,20752.95
15775.00,20635.91
15825.00,20959.68
15875.00,20731.67
15925.00,21132.44
15975.00,21092.84
16050.00,21063.32
16150.00,21099.21
16250.00,21075.16
16350.00,21121.02
16450.00,20609.42
16550.00,20987.62
16650.00,20700.80
16750.00,20601.46
16850.00,20206.18
16950.00,20484.26
17050.00,20308.25
17150.00,20147.96
17250.00,19898.45
17350.00,19441.97
17450.00,19574.32
17550.00,19296.18
17650.00,19187.21
17750.00,18888.01
17850.00,18645.79
17950.00,18530.64
18050.00,18247.07
18150.00,17938.14
18250.00,18018.75
18350.00,17914.84
18450.00,17789.21
18550.00,17731.08
18650.00,17583.68
18750.00,17063.45
18850.00,17357.93
18950.00,17161.32
19050.00,17149.74
19150.00,17065.19
19250.00,16929.53
19350.00,16736.78
19450.00,16423.13
19550.00,16445.42
19650.00,16302.39
19750.00,16061.65
19850.00,16053.71
19950.00,15980.57
20050.00,16027.86
20150.00,15936.54
20250.00,15822.69
20350.00,15705.02
20450.00,15584.53
20550.00,15469.45
20650.00,15379.25
20750.00,15359.01
20850.00,15346.29
20950.00,15236.15
21050.00,15210.35
21150.00,15084.63
21250.00,15032.92
21350.00,14909.05
21450.00,14800.84
21550.00,14754.95
21650.00,14507.73
21750.00,14547.66
21850.00,14458.72
21950.00,14387.78
22050.00,14261.35
22150.00,14226.91
22250.00,14082.72
22350.00,14002.63
22450.00,13883.30
22550.00,13798.14
22650.00,13690.67
22750.00,13648.56
22850.00,13546.50
22950.00,12687.85
23050.00,12933.68
23150.00,12903.61
23250.00,12143.18
23350.00,12572.05
23450.00,12402.10
23550.00,11799.28
23650.00,12122.91
23750.00,12027.80
23850.00,11543.96
23950.00,11821.71
24050.00,11709.44
24150.00,11355.28
24250.00,11505.70
24350.00,11480.88
24450.00,11187.70
24550.00,11122.06
24650.00,11316.64
24750.00,10994.17
24850.00,10942.25
24950.00,10967.77
25050.00,11136.71
25150.00,10905.76
25250.00,10935.04
25350.00,10988.72
25450.00,10806.80
25550.00,10733.37
25650.00,10783.91
25750.00,10864.18
25850.00,10622.83
25950.00,10776.21
26050.00,10795.96
26150.00,10703.08
26250.00,10431.09
26350.00,10644.24
26450.00,10514.00
26550.00,10363.65
26650.00,10364.46
26750.00,10471.49
26850.00,10458.88
26950.00,10322.42
27050.00,10370.67
27150.00,10289.20
27250.00,10250.11
27350.00,10174.14
27450.00,10136.43
27550.00,10039.13
27650.00,10124.19
27750.00,10046.63
27850.00,9999.96
27950.00,9997.80
28050.00,9942.65
28150.00,9857.31
28250.00,9844.46
28350.00,9858.97
28450.00,9823.13
28550.00,9793.00
28650.00,9717.78
28750.00,9660.34
28850.00,9645.95
28950.00,9600.12
29050.00,9535.62
29150.00,9563.81
29250.00,9462.16
29350.00,9425.21
29450.00,9352.19
29550.00,9319.67
29650.00,9216.68
29750.00,9226.05
29850.00,9201.64
29950.00,9147.19
30050.00,9092.25
30150.00,9049.52
30250.00,9003.52
30350.00,8900.46
30450.00,8898.73
30550.00,8872.08
30650.00,8828.05
30750.00,8787.10
30850.00,8741.94
30950.00,8698.20
31050.00,8656.77
31150.00,8601.34
31250.00,8569.83
31350.00,8528.25
31450.00,8484.37
31550.00,8436.94
31650.00,8399.24
31750.00,8357.11
31850.00,8314.82
31950.00,8274.90
32100.00,8212.49
32300.00,8132.49
32500.00,8051.29
32700.00,7971.82
32900.00,7857.04
33100.00,7812.49
33300.00,7736.38
33500.00,7663.48
33700.00,7586.72
33900.00,7507.84
34100.00,7432.42
34300.00,7365.56
34500.00,7287.99
34700.00,7218.93
34900.00,7146.95
35100.00,7076.26
35300.00,7006.14
35500.00,6937.49
35700.00,6867.99
35900.00,6803.56
36100.00,6737.68
36300.00,6674.80
36500.00,6605.82
36700.00,6549.47
36900.00,6481.81
37100.00,6423.97
37300.00,6356.29
37500.00,6280.33
37700.00,6249.54
37900.00,6190.87
38100.00,6134.01
38300.00,6077.65
38500.00,6025.90
38700.00,5972.63
38900.00,5919.37
39100.00,5861.64
39300.00,5815.45
39500.00,5762.32
39700.00,5712.19
39900.00,5657.14
40100.00,5606.17
40300.00,5554.18
40500.00,5481.45
40700.00,5456.68
40900.00,5406.01
41100.00,5354.55
41300.00,5303.99
41500.00,5248.55
41700.00,5187.95
41900.00,5140.53
42100.00,5082.33
42300.00,5031.47
42500.00,4973.10
42700.00,4917.39
42900.00,4805.22
43100.00,4706.82
43300.00,4680.31
43500.00,4562.72
43700.00,4492.51
43900.00,4447.38
44100.00,4340.20
44300.00,4301.02
44500.00,4247.10
44700.00,4155.70
44900.00,4143.04
45100.00,4087.42
45300.00,4015.94
45500.00,3997.43
45700.00,3969.33
45900.00,3893.65
46100.00,3890.92
46300.00,3850.88
46500.00,3817.16
46700.00,3799.88
46900.00,3777.08
47100.00,3748.64
47300.00,3745.76
47500.00,3708.13
47700.00,3686.60
47900.00,3667.58
48100.00,3627.74
48300.00,3631.39
48500.00,3602.26
48700.00,3572.33
48900.00,3554.95
49100.00,3531.31
49300.00,3510.95
49500.00,3487.94
49700.00,3471.59
49900.00,3452.43
50100.00,3435.85
50300.00,3415.52
50500.00,3381.76
50700.00,3363.60
50900.00,3350.83
51100.00,3322.28
51300.00,3300.73
51500.00,3285.94
51700.00,3281.22
51900.00,3250.56
52100.00,3236.66
52300.00,3213.30
52500.00,3201.74
52700.00,3195.18
52900.00,3159.24
53100.00,3144.95
53300.00,3129.37
53500.00,3114.28
53700.00,3098.82
53900.00,3083.42
54100.00,3065.73
54300.00,3041.75
54500.00,3033.19
54700.00,3015.36
54900.00,2997.73
55100.00,2982.84
55300.00,2978.58
55500.00,2947.71
55700.00,2944.53
55900.00,2930.17
56100.00,2916.94
56300.00,2890.44
56500.00,2882.29
56700.00,2866.48
56900.00,2845.75
57100.00,2838.17
57300.00,2822.26
57500.00,2807.75
57700.00,2791.59
57900.00,2788.18
58100.00,2763.28
58300.00,2756.24
58500.00,2743.53
58700.00,2726.37
58900.00,2712.84
59100.00,2693.07
59300.00,2685.64
59500.00,2670.59
59700.00,2658.89
59900.00,2644.80
60100.00,2631.38
60300.00,2617.14
60500.00,2601.02
60700.00,2587.77
60900.00,2574.68
61100.00,2559.50
61300.00,2547.31
61500.00,2534.08
61700.00,2521.74
61900.00,2508.72
62100.00,2495.79
62300.00,2481.50
62500.00,2467.90
62700.00,2454.12
62900.00,2440.98
63100.00,2428.59
63300.00,2416.82
63500.00,2401.59
63700.00,2391.25
63900.00,2376.07
64200.00,2358.13
64600.00,2332.91
65000.00,2308.07
65400.00,2283.46
65800.00,2259.32
66200.00,2235.08
66600.00,2211.73
67000.00,2188.84
67400.00,2165.58
67800.00,2143.14
68200.00,2120.81
68600.00,2098.92
69000.00,2077.01
69400.00,2055.52
69800.00,2034.32
70200.00,2013.31
70600.00,1992.78
71000.00,1972.25
71400.00,1951.96
71800.00,1931.80
72200.00,1912.26
72600.00,1892.69
73000.00,1873.53
73400.00,1854.57
73800.00,1836.06
74200.00,1817.30
74600.00,1796.10
75000.00,1776.67
75400.00,1760.67
75800.00,1744.08
76200.00,1726.27
76600.00,1709.92
77000.00,1692.73
77400.00,1676.73
77800.00,1665.93
78200.00,1651.16
78600.00,1635.16
79000.00,1620.01
79400.00,1604.63
79800.00,1589.56
80200.00,1574.71
80600.00,1558.35
81000.00,1544.04
81400.00,1529.88
81800.00,1516.23
82200.00,1502.59
82600.00,1493.04
83000.00,1479.52
83400.00,1466.44
83800.00,1451.87
84200.00,1439.17
84600.00,1426.56
85000.00,1414.18
85400.00,1405.96
85800.00,1392.15
86200.00,1380.18
86600.00,1366.99
87000.00,1359.33
87400.00,1347.66
87800.00,1340.06
88200.00,1329.14
88600.00,1316.97
89000.00,1309.29
89400.00,1297.47
89800.00,1290.50
90200.00,1278.86
90600.00,1271.95
91000.00,1262.30
91400.00,1254.21
91800.00,1243.29
92200.00,1235.84
92600.00,1229.15
93000.00,1219.76
93400.00,1212.35
93800.00,1205.25
94200.00,1195.11
94600.00,1188.38
95000.00,1179.63
95400.00,1172.60
95800.00,1165.50
96200.00,1155.86
96600.00,1150.36
97000.00,1141.74
97400.00,1134.95
97800.00,1128.54
98200.00,1119.80
98600.00,1113.47
99000.00,1106.71
99400.00,1098.02
99800.00,1092.88
100000.00,1084.02
100900.00,1068.92
101900.00,1049.33
102800.00,1032.41
103800.00,1013.74
104700.00,998.00
105700.00,978.79
106700.00,960.94
107600.00,945.48
108600.00,927.77
109600.00,910.67
110700.00,892.43
111700.00,876.47
112700.00,861.61
113800.00,843.39
114800.00,827.84
115900.00,809.84
116900.00,795.13
118000.00,778.24
119100.00,761.47
120200.00,746.07
121300.00,732.44
122500.00,717.05
123600.00,704.84
124700.00,691.79
125900.00,677.88
127100.00,664.39
128200.00,652.35
129400.00,640.20
130600.00,628.63
131800.00,617.55
133000.00,606.78
134300.00,595.43
135500.00,585.17
136800.00,575.24
138000.00,565.93
139300.00,555.89
140600.00,546.02
141900.00,536.94
143200.00,528.36
144500.00,519.25
145900.00,509.81
147200.00,501.22
148600.00,493.22
150000.00,484.41
151400.00,477.61
152800.00,469.15
154200.00,462.19
155600.00,454.90
157000.00,447.18
158500.00,440.81
160000.00,433.47
161400.00,427.37
162900.00,420.57
164400.00,414.45
166000.00,407.69
167500.00,401.33
169000.00,395.66
170600.00,389.34
172200.00,382.62
173800.00,376.69
175400.00,371.21
177000.00,365.38
178600.00,359.02
180300.00,353.57
182000.00,346.87
183700.00,341.48
185400.00,335.60
187100.00,329.79
188800.00,324.08
190500.00,318.98
192300.00,313.26
194100.00,307.66
195900.00,302.18
197700.00,296.85
199500.00,291.69
201400.00,286.32
203200.00,281.36
205100.00,276.26
207000.00,271.40
208900.00,266.83
210900.00,261.32
212800.00,256.71
214800.00,251.98
216800.00,247.40
218800.00,242.95
220800.00,238.53
222800.00,234.47
224900.00,229.68
227000.00,225.49
229100.00,221.61
231200.00,217.63
233300.00,213.80
235500.00,209.87
237700.00,206.03
239900.00,202.32
242100.00,198.72
244300.00,195.14
246600.00,191.21
248900.00,187.67
251200.00,184.28
253500.00,180.99
255900.00,177.83
258200.00,174.71
260600.00,171.53
263000.00,168.43
265500.00,165.31
267900.00,162.37
270400.00,159.43
272900.00,156.60
275400.00,153.92
278000.00,150.99
280500.00,148.78
283100.00,146.13
285800.00,143.35
288400.00,140.88
291100.00,138.65
293800.00,136.06
296500.00,133.67
299200.00,131.33
302000.00,129.22
304800.00,126.89
307600.00,124.61
310500.00,122.01
313300.00,119.87
316200.00,117.72
319200.00,115.54
322100.00,113.48
325100.00,111.41
328100.00,109.40
331100.00,107.43
334200.00,105.47
337300.00,103.54
340400.00,101.69
343600.00,99.80
346700.00,98.05
349900.00,96.37
353200.00,94.60
356500.00,92.87
359700.00,91.24
363100.00,89.56
366400.00,87.96
369800.00,86.36
373300.00,84.76
376700.00,83.25
380200.00,81.73
383700.00,80.22
387300.00,78.78
390800.00,77.38
394500.00,75.92
398100.00,74.38
401800.00,73.03
405500.00,71.71
409300.00,70.39
413000.00,69.13
416900.00,67.84
420700.00,66.63
424600.00,65.40
428500.00,64.21
432500.00,63.03
436500.00,61.88
440600.00,60.79
444600.00,59.70
448700.00,58.61
452900.00,57.52
457100.00,56.46
461300.00,55.42
465600.00,54.29
469900.00,53.29
474200.00,52.33
478600.00,51.40
483100.00,50.43
487500.00,49.52
492000.00,48.61
496600.00,47.70
501200.00,46.71
505800.00,45.86
510500.00,45.03
515200.00,44.25
520000.00,43.44
524800.00,42.65
529700.00,41.87
534600.00,41.10
539500.00,40.36
544500.00,39.62
549500.00,38.90
554600.00,38.19
559800.00,37.48
564900.00,36.81
570200.00,36.13
575400.00,35.48
580800.00,34.82
586100.00,34.19
591600.00,33.55
597000.00,32.94
602600.00,32.33
608100.00,31.75
613800.00,31.16
619400.00,30.60
625200.00,30.03
631000.00,29.48
636800.00,28.94
642700.00,28.39
648600.00,27.87
654600.00,27.36
660700.00,26.85
666800.00,26.36
673000.00,25.88
679200.00,25.43
685500.00,24.96
691800.00,24.44
698200.00,23.99
704700.00,23.55
711200.00,23.12
717800.00,22.69
724400.00,22.28
731100.00,21.86
737900.00,21.46
744700.00,21.09
751600.00,20.70
758600.00,20.27
765600.00,19.89
772700.00,19.52
779800.00,19.17
787000.00,18.83
794300.00,18.47
801700.00,18.12
809100.00,17.74
816600.00,17.41
824100.00,17.11
831800.00,16.79
839500.00,16.48
847200.00,16.13
855100.00,15.85
863000.00,15.55
871000.00,15.26
879000.00,14.99
887200.00,14.67
895400.00,14.39
903600.00,14.14
912000.00,13.88
920400.00,13.58
929000.00,13.33
937600.00,13.08
946200.00,12.84
955000.00,12.57
963800.00,12.35
972700.00,12.12
981700.00,11.86
990800.00,11.65
1000000.00,11.43
1009000.00,11.22
1019000.00,11.00
1028000.00,10.81
1038000.00,10.60
1047000.00,10.42
1057000.00,10.23
1067000.00,10.04
1076000.00,9.85
1086000.00,9.66
1096000.00,9.48
1107000.00,9.29
1117000.00,9.12
1127000.00,8.96
1138000.00,8.78
1148000.00,8.63
1159000.00,8.47
1169000.00,8.32
1180000.00,8.17
1191000.00,8.02
1202000.00,7.87
1213000.00,7.72
1225000.00,7.55
1236000.00,7.42
1247000.00,7.28
1259000.00,7.14
1271000.00,7.01
1282000.00,6.89
1294000.00,6.76
1306000.00,6.63
1318000.00,6.51
1330000.00,6.37
1343000.00,6.25
1355000.00,6.14
1368000.00,6.02
1380000.00,5.92
1393000.00,5.81
1406000.00,5.70
1419000.00,5.59
1432000.00,5.49
1445000.00,5.38
1459000.00,5.28
1472000.00,5.18
1486000.00,5.08
1500000.00,4.99
1514000.00,4.89
1528000.00,4.80
1542000.00,4.71
1556000.00,4.62
1570000.00,4.54
1585000.00,4.45
1600000.00,4.37
1614000.00,4.30
1629000.00,4.22
1644000.00,4.12
1660000.00,4.04
1675000.00,3.97
1690000.00,3.90
1706000.00,3.83
1722000.00,3.76
1738000.00,3.68
1754000.00,3.61
1770000.00,3.55
1786000.00,3.48
1803000.00,3.42
1820000.00,3.35
1837000.00,3.28
1854000.00,3.22
1871000.00,3.17
1888000.00,3.11
1905000.00,3.05
1923000.00,3.00
1941000.00,2.93
1959000.00,2.88
1977000.00,2.83
1995000.00,2.78
2014000.00,2.73
2032000.00,2.68
2051000.00,2.62
2070000.00,2.57
2089000.00,2.52
2109000.00,2.48
2128000.00,2.43
2148000.00,2.39
2168000.00,2.34
2188000.00,2.29
2208000.00,2.25
2228000.00,2.21
2249000.00,2.17
2270000.00,2.13
2291000.00,2.09
2312000.00,2.05
2333000.00,2.01
2355000.00,1.98
2377000.00,1.94
2399000.00,1.91
2421000.00,1.87
2443000.00,1.83
2466000.00,1.80
2489000.00,1.76
2512000.00,1.73
2535000.00,1.70
2559000.00,1.67
2582000.00,1.64
2606000.00,1.61
2630000.00,1.58
2655000.00,1.55
2679000.00,1.52
2704000.00,1.49
2729000.00,1.46
2754000.00,1.44
2780000.00,1.41
2805000.00,1.38
2831000.00,1.36
2858000.00,1.33
2884000.00,1.31
2911000.00,1.28
2938000.00,1.26
2965000.00,1.24
2992000.00,1.22
3020000.00,1.19
3048000.00,1.17
3076000.00,1.15
3105000.00,1.13
3133000.00,1.11
3162000.00,1.09
3192000.00,1.06
3221000.00,1.05
3251000.00,1.03
3281000.00,1.01
3311000.00,0.99
3342000.00,0.97
3373000.00,0.95
3404000.00,0.94
3436000.00,0.92
3467000.00,0.90
3499000.00,0.89
3532000.00,0.87
3565000.00,0.85
3597000.00,0.84
3631000.00,0.82
3664000.00,0.81
3698000.00,0.79
3733000.00,0.78
3767000.00,0.76
3802000.00,0.75
3837000.00,0.74
3873000.00,0.72
3908000.00,0.71
3945000.00,0.70
3981000.00,0.68
4018000.00,0.67
4055000.00,0.66
4093000.00,0.65
4130000.00,0.63
4169000.00,0.62
4207000.00,0.61
4246000.00,0.60
4285000.00,0.59
4325000.00,0.58
4365000.00,0.57
4406000.00,0.56
4446000.00,0.55
4487000.00,0.54
4529000.00,0.53
4571000.00,0.52
4613000.00,0.51
4656000.00,0.50
4699000.00,0.49
4742000.00,0.48
4786000.00,0.47
4831000.00,0.46
4875000.00,0.45
4920000.00,0.44
4966000.00,0.44
5012000.00,0.43
5058000.00,0.42
5105000.00,0.41
5152000.00,0.41
5200000.00,0.40
5248000.00,0.39
5297000.00,0.38
5346000.00,0.38
5395000.00,0.37
5445000.00,0.36
5495000.00,0.36
5546000.00,0.35
5598000.00,0.34
5649000.00,0.34
5702000.00,0.33
5754000.00,0.33
5808000.00,0.32
5861000.00,0.31
5916000.00,0.31
5970000.00,0.30
6026000.00,0.30
6081000.00,0.29
6138000.00,0.29
6194000.00,0.28
6252000.00,0.28
6310000.00,0.27
6368000.00,0.27
6427000.00,0.26
6486000.00,0.25
6546000.00,0.25
6607000.00,0.25
6668000.00,0.24
6730000.00,0.24
6792000.00,0.23
6855000.00,0.23
6918000.00,0.22
6982000.00,0.22
7047000.00,0.22
7112000.00,0.21
7178000.00,0.21
7244000.00,0.20
7311000.00,0.20
7379000.00,0.20
7447000.00,0.19
7516000.00,0.19
7586000.00,0.19
7656000.00,0.18
7727000.00,0.18
7798000.00,0.18
7870000.00,0.17
7943000.00,0.17
8017000.00,0.17
8091000.00,0.16
8166000.00,0.16
8241000.00,0.16
8318000.00,0.16
8395000.00,0.15
8472000.00,0.15
8551000.00,0.15
8630000.00,0.14
8710000.00,0.14
8790000.00,0.14
8872000.00,0.14
8954000.00,0.13
9036000.00,0.13
9120000.00,0.13
9204000.00,0.13
9290000.00,0.12
9376000.00,0.12
9462000.00,0.12
9550000.00,0.12
9638000.00,0.12
9727000.00,0.11
9817000.00,0.11
9908000.00,0.11
10000000.00,0.11
10090000.00,0.11
10190000.00,0.10
10280000.00,0.10
10380000.00,0.10
10470000.00,0.10
10570000.00,0.10
10670000.00,0.09
10760000.00,0.09
10860000.00,0.09
10960000.00,0.09
11070000.00,0.09
11170000.00,0.09
11270000.00,0.08
11380000.00,0.08
11480000.00,0.08
11590000.00,0.08
11690000.00,0.08
11800000.00,0.08
11910000.00,0.08
12020000.00,0.07
12130000.00,0.07
12250000.00,0.07
12360000.00,0.07
12470000.00,0.07
12590000.00,0.07
12710000.00,0.07
12820000.00,0.07
12940000.00,0.06
13060000.00,0.06
13180000.00,0.06
13300000.00,0.06
13430000.00,0.06
13550000.00,0.06
13680000.00,0.06
13800000.00,0.06
13930000.00,0.06
14060000.00,0.05
14190000.00,0.05
14320000.00,0.05
14450000.00,0.05
14590000.00,0.05
14720000.00,0.05
14860000.00,0.05
15000000.00,0.05
15140000.00,0.05
15280000.00,0.05
15420000.00,0.05
15560000.00,0.04
15700000.00,0.04
15850000.00,0.04
16000000.00,0.04
16140000.00,0.04
16290000.00,0.04
16440000.00,0.04
16600000.00,0.04
16750000.00,0.04
16900000.00,0.04
17060000.00,0.04
17220000.00,0.04
17380000.00,0.04
17540000.00,0.03
17700000.00,0.03
17860000.00,0.03
18030000.00,0.03
18200000.00,0.03
18370000.00,0.03
18540000.00,0.03
18710000.00,0.03
18880000.00,0.03
19050000.00,0.03
19230000.00,0.03
19410000.00,0.03
19590000.00,0.03
19770000.00,0.03
19950000.00,0.03
20140000.00,0.03
20320000.00,0.03
20510000.00,0.03
20700000.00,0.02
20890000.00,0.02
21090000.00,0.02
21280000.00,0.02
21480000.00,0.02
21680000.00,0.02
21880000.00,0.02
22080000.00,0.02
22280000.00,0.02
22490000.00,0.02
22700000.00,0.02
22910000.00,0.02
23120000.00,0.02
23330000.00,0.02
23550000.00,0.02
23770000.00,0.02
23990000.00,0.02
24210000.00,0.02
24430000.00,0.02
24660000.00,0.02
24890000.00,0.02
25120000.00,0.02
25350000.00,0.02
25590000.00,0.02
25820000.00,0.02
26060000.00,0.02
26300000.00,0.02
26550000.00,0.02
26790000.00,0.01
27040000.00,0.01
27290000.00,0.01
27540000.00,0.01
27800000.00,0.01
28050000.00,0.01
28310000.00,0.01
28580000.00,0.01
28840000.00,0.01
29110000.00,0.01
29380000.00,0.01
29650000.00,0.01
29920000.00,0.01
30200000.00,0.01
30480000.00,0.01
30760000.00,0.01
31050000.00,0.01
31330000.00,0.01
31620000.00,0.01
31920000.00,0.01
32210000.00,0.01
32510000.00,0.01
32810000.00,0.01
33110000.00,0.01
33420000.00,0.01
33730000.00,0.01
34040000.00,0.01
34360000.00,0.01
34670000.00,0.01
34990000.00,0.01
35320000.00,0.01
35650000.00,0.01
35970000.00,0.01
36310000.00,0.01
36640000.00,0.01
36980000.00,0.01
37330000.00,0.01
37670000.00,0.01
38020000.00,0.01
38370000.00,0.01
38730000.00,0.01
39080000.00,0.01
39450000.00,0.01
39810000.00,0.01
40180000.00,0.01
40550000.00,0.01
40930000.00,0.01
41300000.00,0.01
41690000.00,0.01
42070000.00,0.01
42460000.00,0.01
42850000.00,0.01
43250000.00,0.01
43650000.00,0.01
44060000.00,0.01
44460000.00,0.01
44870000.00,0.01
45290000.00,0.01
45710000.00,0.01
46130000.00,0.01
46560000.00,0.00
46990000.00,0.00
47420000.00,0.00
47860000.00,0.00
48310000.00,0.00
48750000.00,0.00
49200000.00,0.00
49660000.00,0.00
50120000.00,0.00
50580000.00,0.00
51050000.00,0.00
51520000.00,0.00
52000000.00,0.00
52480000.00,0.00
52970000.00,0.00
53460000.00,0.00
53950000.00,0.00
54450000.00,0.00
54950000.00,0.00
55460000.00,0.00
55980000.00,0.00
56490000.00,0.00
57020000.00,0.00
57540000.00,0.00
58080000.00,0.00
58610000.00,0.00
59160000.00,0.00
59700000.00,0.00
60260000.00,0.00
60810000.00,0.00
61380000.00,0.00
61940000.00,0.00
62520000.00,0.00
63100000.00,0.00
63680000.00,0.00
64270000.00,0.00
64860000.00,0.00
65460000.00,0.00
66070000.00,0.00
66680000.00,0.00
67300000.00,0.00
67920000.00,0.00
68550000.00,0.00
69180000.00,0.00
69820000.00,0.00
70470000.00,0.00
71120000.00,0.00
71780000.00,0.00
72440000.00,0.00
73110000.00,0.00
73790000.00,0.00
74470000.00,0.00
75160000.00,0.00
75860000.00,0.00
76560000.00,0.00
77270000.00,0.00
77980000.00,0.00
78700000.00,0.00
79430000.00,0.00
80170000.00,0.00
80910000.00,0.00
81660000.00,0.00
82410000.00,0.00
83180000.00,0.00
83950000.00,0.00
84720000.00,0.00
85510000.00,0.00
86300000.00,0.00
87100000.00,0.00
87900000.00,0.00
88720000.00,0.00
89540000.00,0.00
90360000.00,0.00
91200000.00,0.00
92040000.00,0.00
92900000.00,0.00
93760000.00,0.00
94620000.00,0.00
95500000.00,0.00
96380000.00,0.00
97270000.00,0.00
98170000.00,0.00
99080000.00,0.00
100000000.00,0.00
